# E (eV)   ldos(E)   pdos(E)   
 -6.292  0.401E-05  0.401E-05
 -6.282  0.596E-03  0.596E-03
 -6.272  0.120E-01  0.120E-01
 -6.262  0.325E-01  0.325E-01
 -6.252  0.120E-01  0.120E-01
 -6.242  0.596E-03  0.596E-03
 -6.232  0.401E-05  0.401E-05
 -6.222  0.432E-08  0.432E-08
 -6.212  0.175E-05  0.175E-05
 -6.202  0.630E-03  0.630E-03
 -6.192  0.307E-01  0.307E-01
 -6.182  0.202E+00  0.202E+00
 -6.172  0.181E+00  0.181E+00
 -6.162  0.573E-01  0.573E-01
 -6.152  0.168E+00  0.168E+00
 -6.142  0.107E+00  0.107E+00
 -6.132  0.927E-02  0.927E-02
 -6.122  0.108E-03  0.108E-03
 -6.112  0.172E-06  0.172E-06
 -6.102  0.368E-10  0.368E-10
 -6.092  0.147E-12  0.147E-12
 -6.082  0.232E-08  0.232E-08
 -6.072  0.498E-05  0.498E-05
 -6.062  0.145E-02  0.145E-02
 -6.052  0.569E-01  0.569E-01
 -6.042  0.303E+00  0.303E+00
 -6.032  0.218E+00  0.218E+00
 -6.022  0.213E-01  0.213E-01
 -6.012  0.281E-03  0.281E-03
 -6.002  0.501E-06  0.501E-06
 -5.992  0.754E-06  0.754E-06
 -5.982  0.451E-03  0.451E-03
 -5.972  0.365E-01  0.365E-01
 -5.962  0.399E+00  0.399E+00
 -5.952  0.593E+00  0.593E+00
 -5.942  0.156E+00  0.156E+00
 -5.932  0.196E+00  0.196E+00
 -5.922  0.135E+00  0.135E+00
 -5.912  0.128E-01  0.128E-01
 -5.902  0.165E-03  0.165E-03
 -5.892  0.286E-06  0.286E-06
 -5.882  0.674E-10  0.674E-10
 -5.872  0.385E-14  0.385E-14
 -5.862  0.525E-10  0.525E-10
 -5.852  0.219E-06  0.219E-06
 -5.842  0.123E-03  0.123E-03
 -5.832  0.941E-02  0.941E-02
 -5.822  0.972E-01  0.972E-01
 -5.812  0.136E+00  0.136E+00
 -5.802  0.257E-01  0.257E-01
 -5.792  0.658E-03  0.658E-03
 -5.782  0.228E-05  0.228E-05
 -5.772  0.399E-05  0.399E-05
 -5.762  0.145E-02  0.145E-02
 -5.752  0.718E-01  0.718E-01
 -5.742  0.480E+00  0.480E+00
 -5.732  0.436E+00  0.436E+00
 -5.722  0.133E+00  0.133E+00
 -5.712  0.492E+00  0.492E+00
 -5.702  0.408E+00  0.408E+00
 -5.692  0.458E-01  0.458E-01
 -5.682  0.697E-03  0.697E-03
 -5.672  0.143E-05  0.143E-05
 -5.662  0.399E-09  0.399E-09
 -5.652  0.141E-10  0.141E-10
 -5.642  0.101E-06  0.101E-06
 -5.632  0.982E-04  0.982E-04
 -5.622  0.129E-01  0.129E-01
 -5.612  0.230E+00  0.230E+00
 -5.602  0.555E+00  0.555E+00
 -5.592  0.181E+00  0.181E+00
 -5.582  0.800E-02  0.800E-02
 -5.572  0.478E-04  0.478E-04
 -5.562  0.764E-06  0.764E-06
 -5.552  0.308E-03  0.308E-03
 -5.542  0.179E-01  0.179E-01
 -5.532  0.162E+00  0.162E+00
 -5.522  0.447E+00  0.447E+00
 -5.512  0.530E+00  0.530E+00
 -5.502  0.117E+00  0.117E+00
 -5.492  0.359E-02  0.359E-02
 -5.482  0.150E-04  0.150E-04
 -5.472  0.846E-08  0.846E-08
 -5.462  0.647E-12  0.647E-12
 -5.452  0.849E-17  0.849E-17
 -5.442  0.190E-12  0.190E-12
 -5.432  0.272E-08  0.272E-08
 -5.422  0.529E-05  0.529E-05
 -5.412  0.139E-02  0.139E-02
 -5.402  0.496E-01  0.496E-01
 -5.392  0.239E+00  0.239E+00
 -5.382  0.156E+00  0.156E+00
 -5.372  0.137E-01  0.137E-01
 -5.362  0.164E-03  0.164E-03
 -5.352  0.269E-06  0.269E-06
 -5.342  0.937E-05  0.937E-05
 -5.332  0.312E-02  0.312E-02
 -5.322  0.141E+00  0.141E+00
 -5.312  0.863E+00  0.863E+00
 -5.302  0.833E+00  0.833E+00
 -5.292  0.567E+00  0.567E+00
 -5.282  0.269E+00  0.269E+00
 -5.272  0.959E-01  0.959E-01
 -5.262  0.113E+00  0.113E+00
 -5.252  0.225E-01  0.225E-01
 -5.242  0.603E-03  0.603E-03
 -5.232  0.219E-05  0.219E-05
 -5.222  0.108E-08  0.108E-08
 -5.212  0.954E-10  0.954E-10
 -5.202  0.448E-06  0.448E-06
 -5.192  0.285E-03  0.285E-03
 -5.182  0.245E-01  0.245E-01
 -5.172  0.285E+00  0.285E+00
 -5.162  0.450E+00  0.450E+00
 -5.152  0.959E-01  0.959E-01
 -5.142  0.287E-02  0.287E-02
 -5.132  0.123E-01  0.123E-01
 -5.122  0.208E+00  0.208E+00
 -5.112  0.479E+00  0.479E+00
 -5.102  0.149E+00  0.149E+00
 -5.092  0.756E-02  0.756E-02
 -5.082  0.607E-01  0.607E-01
 -5.072  0.393E+00  0.393E+00
 -5.062  0.344E+00  0.344E+00
 -5.052  0.408E-01  0.408E-01
 -5.042  0.654E-03  0.654E-03
 -5.032  0.131E-04  0.131E-04
 -5.022  0.205E-02  0.205E-02
 -5.012  0.486E-01  0.486E-01
 -5.002  0.156E+00  0.156E+00
 -4.992  0.681E-01  0.681E-01
 -4.982  0.401E-02  0.401E-02
 -4.972  0.320E-04  0.320E-04
 -4.962  0.345E-07  0.345E-07
 -4.952  0.231E-10  0.231E-10
 -4.942  0.119E-06  0.119E-06
 -4.932  0.105E-03  0.105E-03
 -4.922  0.127E-01  0.127E-01
 -4.912  0.206E+00  0.206E+00
 -4.902  0.454E+00  0.454E+00
 -4.892  0.137E+00  0.137E+00
 -4.882  0.869E-01  0.869E-01
 -4.872  0.637E+00  0.637E+00
 -4.862  0.746E+00  0.746E+00
 -4.852  0.131E+00  0.131E+00
 -4.842  0.341E-02  0.341E-02
 -4.832  0.127E-04  0.127E-04
 -4.822  0.398E-06  0.398E-06
 -4.812  0.304E-03  0.304E-03
 -4.802  0.319E-01  0.319E-01
 -4.792  0.453E+00  0.453E+00
 -4.782  0.872E+00  0.872E+00
 -4.772  0.227E+00  0.227E+00
 -4.762  0.956E-02  0.956E-02
 -4.752  0.671E-01  0.671E-01
 -4.742  0.389E+00  0.389E+00
 -4.732  0.306E+00  0.306E+00
 -4.722  0.326E-01  0.326E-01
 -4.712  0.477E-03  0.477E-03
 -4.702  0.261E-02  0.261E-02
 -4.692  0.119E+00  0.119E+00
 -4.682  0.736E+00  0.736E+00
 -4.672  0.616E+00  0.616E+00
 -4.662  0.697E-01  0.697E-01
 -4.652  0.107E-02  0.107E-02
 -4.642  0.222E-05  0.222E-05
 -4.632  0.622E-09  0.622E-09
 -4.622  0.236E-13  0.236E-13
 -4.612  0.443E-18  0.443E-18
 -4.602  0.636E-13  0.636E-13
 -4.592  0.124E-08  0.124E-08
 -4.582  0.325E-05  0.325E-05
 -4.572  0.116E-02  0.116E-02
 -4.562  0.556E-01  0.556E-01
 -4.552  0.363E+00  0.363E+00
 -4.542  0.320E+00  0.320E+00
 -4.532  0.679E-01  0.679E-01
 -4.522  0.307E+00  0.307E+00
 -4.512  0.475E+00  0.475E+00
 -4.502  0.127E+00  0.127E+00
 -4.492  0.642E-02  0.642E-02
 -4.482  0.579E-04  0.579E-04
 -4.472  0.656E-04  0.656E-04
 -4.462  0.622E-02  0.622E-02
 -4.452  0.800E-01  0.800E-01
 -4.442  0.144E+00  0.144E+00
 -4.432  0.151E+00  0.151E+00
 -4.422  0.408E+00  0.408E+00
 -4.412  0.191E+00  0.191E+00
 -4.402  0.676E-01  0.676E-01
 -4.392  0.205E+00  0.205E+00
 -4.382  0.102E+00  0.102E+00
 -4.372  0.693E-02  0.693E-02
 -4.362  0.490E-02  0.490E-02
 -4.352  0.165E+00  0.165E+00
 -4.342  0.776E+00  0.776E+00
 -4.332  0.703E+00  0.703E+00
 -4.322  0.851E+00  0.851E+00
 -4.312  0.421E+00  0.421E+00
 -4.302  0.297E-01  0.297E-01
 -4.292  0.283E-03  0.283E-03
 -4.282  0.365E-06  0.365E-06
 -4.272  0.363E-09  0.363E-09
 -4.262  0.125E-05  0.125E-05
 -4.252  0.713E-03  0.713E-03
 -4.242  0.568E-01  0.568E-01
 -4.232  0.654E+00  0.654E+00
 -4.222  0.117E+01  0.117E+01
 -4.212  0.353E+00  0.353E+00
 -4.202  0.180E-01  0.180E-01
 -4.192  0.297E-03  0.297E-03
 -4.182  0.153E-01  0.153E-01
 -4.172  0.211E+00  0.211E+00
 -4.162  0.420E+00  0.420E+00
 -4.152  0.170E+00  0.170E+00
 -4.142  0.265E-01  0.265E-01
 -4.132  0.431E-01  0.431E-01
 -4.122  0.569E+00  0.569E+00
 -4.112  0.119E+01  0.119E+01
 -4.102  0.380E+00  0.380E+00
 -4.092  0.178E-01  0.178E-01
 -4.082  0.119E-03  0.119E-03
 -4.072  0.110E-06  0.110E-06
 -4.062  0.530E-08  0.530E-08
 -4.052  0.965E-05  0.965E-05
 -4.042  0.239E-02  0.239E-02
 -4.032  0.800E-01  0.800E-01
 -4.022  0.363E+00  0.363E+00
 -4.012  0.253E+00  0.253E+00
 -4.002  0.304E+00  0.304E+00
 -3.992  0.355E+00  0.355E+00
 -3.982  0.595E-01  0.595E-01
 -3.972  0.135E-02  0.135E-02
 -3.962  0.149E-04  0.149E-04
 -3.952  0.263E-02  0.263E-02
 -3.942  0.875E-01  0.875E-01
 -3.932  0.394E+00  0.394E+00
 -3.922  0.241E+00  0.241E+00
 -3.912  0.642E-01  0.642E-01
 -3.902  0.325E+00  0.325E+00
 -3.892  0.326E+00  0.326E+00
 -3.882  0.206E+00  0.206E+00
 -3.872  0.727E+00  0.727E+00
 -3.862  0.437E+00  0.437E+00
 -3.852  0.388E-01  0.388E-01
 -3.842  0.962E-01  0.962E-01
 -3.832  0.384E+00  0.384E+00
 -3.822  0.209E+00  0.209E+00
 -3.812  0.333E-01  0.333E-01
 -3.802  0.329E+00  0.329E+00
 -3.792  0.870E+00  0.870E+00
 -3.782  0.666E+00  0.666E+00
 -3.772  0.584E+00  0.584E+00
 -3.762  0.314E+00  0.314E+00
 -3.752  0.357E-01  0.357E-01
 -3.742  0.585E-03  0.585E-03
 -3.732  0.131E-05  0.131E-05
 -3.722  0.425E-09  0.425E-09
 -3.712  0.194E-06  0.194E-06
 -3.702  0.175E-03  0.175E-03
 -3.692  0.214E-01  0.214E-01
 -3.682  0.355E+00  0.355E+00
 -3.672  0.795E+00  0.795E+00
 -3.662  0.241E+00  0.241E+00
 -3.652  0.989E-02  0.989E-02
 -3.642  0.549E-04  0.549E-04
 -3.632  0.353E-04  0.353E-04
 -3.622  0.722E-02  0.722E-02
 -3.612  0.200E+00  0.200E+00
 -3.602  0.751E+00  0.751E+00
 -3.592  0.381E+00  0.381E+00
 -3.582  0.300E-01  0.300E-01
 -3.572  0.494E-01  0.494E-01
 -3.562  0.869E-01  0.869E-01
 -3.552  0.208E-01  0.208E-01
 -3.542  0.674E-03  0.674E-03
 -3.532  0.565E-05  0.565E-05
 -3.522  0.118E-02  0.118E-02
 -3.512  0.703E-01  0.703E-01
 -3.502  0.566E+00  0.566E+00
 -3.492  0.617E+00  0.617E+00
 -3.482  0.910E-01  0.910E-01
 -3.472  0.345E-02  0.345E-02
 -3.462  0.632E-01  0.632E-01
 -3.452  0.331E+00  0.331E+00
 -3.442  0.235E+00  0.235E+00
 -3.432  0.225E-01  0.225E-01
 -3.422  0.292E-03  0.292E-03
 -3.412  0.514E-06  0.514E-06
 -3.402  0.122E-09  0.122E-09
 -3.392  0.215E-10  0.215E-10
 -3.382  0.151E-06  0.151E-06
 -3.372  0.143E-03  0.143E-03
 -3.362  0.184E-01  0.184E-01
 -3.352  0.320E+00  0.320E+00
 -3.342  0.752E+00  0.752E+00
 -3.332  0.242E+00  0.242E+00
 -3.322  0.933E-01  0.933E-01
 -3.312  0.352E+00  0.352E+00
 -3.302  0.294E+00  0.294E+00
 -3.292  0.851E+00  0.851E+00
 -3.282  0.118E+01  0.118E+01
 -3.272  0.267E+00  0.267E+00
 -3.262  0.966E-02  0.966E-02
 -3.252  0.538E-04  0.538E-04
 -3.242  0.440E-07  0.440E-07
 -3.232  0.510E-11  0.510E-11
 -3.222  0.818E-16  0.818E-16
 -3.212  0.000E+00  0.000E+00
 -3.202  0.000E+00  0.000E+00
 -3.192  0.000E+00  0.000E+00
 -3.182  0.000E+00  0.000E+00
 -3.172  0.000E+00  0.000E+00
 -3.162  0.000E+00  0.000E+00
 -3.152  0.000E+00  0.000E+00
 -3.142  0.000E+00  0.000E+00
 -3.132  0.000E+00  0.000E+00
 -3.122  0.000E+00  0.000E+00
 -3.112  0.925E-15  0.925E-15
 -3.102  0.371E-10  0.371E-10
 -3.092  0.201E-06  0.201E-06
 -3.082  0.147E-03  0.147E-03
 -3.072  0.146E-01  0.146E-01
 -3.062  0.197E+00  0.197E+00
 -3.052  0.400E+00  0.400E+00
 -3.042  0.386E+00  0.386E+00
 -3.032  0.286E+00  0.286E+00
 -3.022  0.469E-01  0.469E-01
 -3.012  0.164E+00  0.164E+00
 -3.002  0.341E+00  0.341E+00
 -2.992  0.964E-01  0.964E-01
 -2.982  0.369E-02  0.369E-02
 -2.972  0.191E-04  0.191E-04
 -2.962  0.527E-05  0.527E-05
 -2.952  0.187E-02  0.187E-02
 -2.942  0.900E-01  0.900E-01
 -2.932  0.586E+00  0.586E+00
 -2.922  0.517E+00  0.517E+00
 -2.912  0.617E-01  0.617E-01
 -2.902  0.996E-03  0.996E-03
 -2.892  0.218E-05  0.218E-05
 -2.882  0.742E-07  0.742E-07
 -2.872  0.829E-04  0.829E-04
 -2.862  0.126E-01  0.126E-01
 -2.852  0.261E+00  0.261E+00
 -2.842  0.730E+00  0.730E+00
 -2.832  0.276E+00  0.276E+00
 -2.822  0.283E-01  0.283E-01
 -2.812  0.193E+00  0.193E+00
 -2.802  0.355E+00  0.355E+00
 -2.792  0.887E-01  0.887E-01
 -2.782  0.300E-02  0.300E-02
 -2.772  0.137E-04  0.137E-04
 -2.762  0.847E-08  0.847E-08
 -2.752  0.709E-12  0.709E-12
 -2.742  0.804E-17  0.804E-17
 -2.732  0.000E+00  0.000E+00
 -2.722  0.000E+00  0.000E+00
 -2.712  0.000E+00  0.000E+00
 -2.702  0.000E+00  0.000E+00
 -2.692  0.000E+00  0.000E+00
 -2.682  0.000E+00  0.000E+00
 -2.672  0.000E+00  0.000E+00
 -2.662  0.172E-15  0.172E-15
 -2.652  0.811E-11  0.811E-11
 -2.642  0.516E-07  0.516E-07
 -2.632  0.445E-04  0.445E-04
 -2.622  0.518E-02  0.518E-02
 -2.612  0.818E-01  0.818E-01
 -2.602  0.175E+00  0.175E+00
 -2.592  0.504E-01  0.504E-01
 -2.582  0.197E-02  0.197E-02
 -2.572  0.104E-04  0.104E-04
 -2.562  0.748E-08  0.748E-08
 -2.552  0.725E-12  0.725E-12
 -2.542  0.951E-17  0.951E-17
 -2.532  0.000E+00  0.000E+00
 -2.522  0.000E+00  0.000E+00
 -2.512  0.216E-15  0.216E-15
 -2.502  0.858E-11  0.858E-11
 -2.492  0.461E-07  0.461E-07
 -2.482  0.336E-04  0.336E-04
 -2.472  0.331E-02  0.331E-02
 -2.462  0.441E-01  0.441E-01
 -2.452  0.796E-01  0.796E-01
 -2.442  0.302E-01  0.302E-01
 -2.432  0.163E+00  0.163E+00
 -2.422  0.328E+00  0.328E+00
 -2.412  0.901E-01  0.901E-01
 -2.402  0.335E-02  0.335E-02
 -2.392  0.271E-04  0.271E-04
 -2.382  0.240E-02  0.240E-02
 -2.372  0.762E-01  0.762E-01
 -2.362  0.327E+00  0.327E+00
 -2.352  0.190E+00  0.190E+00
 -2.342  0.256E-01  0.256E-01
 -2.332  0.111E+00  0.111E+00
 -2.322  0.157E+00  0.157E+00
 -2.312  0.299E-01  0.299E-01
 -2.302  0.773E-03  0.773E-03
 -2.292  0.270E-05  0.270E-05
 -2.282  0.128E-08  0.128E-08
 -2.272  0.817E-13  0.817E-13
 -2.262  0.188E-13  0.188E-13
 -2.252  0.380E-09  0.380E-09
 -2.242  0.104E-05  0.104E-05
 -2.232  0.385E-03  0.385E-03
 -2.222  0.193E-01  0.193E-01
 -2.212  0.131E+00  0.131E+00
 -2.202  0.120E+00  0.120E+00
 -2.192  0.149E-01  0.149E-01
 -2.182  0.251E-03  0.251E-03
 -2.172  0.570E-06  0.570E-06
 -2.162  0.176E-09  0.176E-09
 -2.152  0.732E-14  0.732E-14
 -2.142  0.000E+00  0.000E+00
 -2.132  0.000E+00  0.000E+00
 -2.122  0.000E+00  0.000E+00
 -2.112  0.000E+00  0.000E+00
 -2.102  0.000E+00  0.000E+00
 -2.092  0.000E+00  0.000E+00
 -2.082  0.000E+00  0.000E+00
 -2.072  0.000E+00  0.000E+00
 -2.062  0.000E+00  0.000E+00
 -2.052  0.000E+00  0.000E+00
 -2.042  0.000E+00  0.000E+00
 -2.032  0.000E+00  0.000E+00
 -2.022  0.000E+00  0.000E+00
 -2.012  0.000E+00  0.000E+00
 -2.002  0.000E+00  0.000E+00
 -1.992  0.289E-15  0.289E-15
 -1.982  0.138E-10  0.138E-10
 -1.972  0.886E-07  0.886E-07
 -1.962  0.772E-04  0.772E-04
 -1.952  0.911E-02  0.911E-02
 -1.942  0.145E+00  0.145E+00
 -1.932  0.314E+00  0.314E+00
 -1.922  0.918E-01  0.918E-01
 -1.912  0.363E-02  0.363E-02
 -1.902  0.195E-04  0.195E-04
 -1.892  0.174E-07  0.174E-07
 -1.882  0.781E-05  0.781E-05
 -1.872  0.256E-02  0.256E-02
 -1.862  0.122E+00  0.122E+00
 -1.852  0.943E+00  0.943E+00
 -1.842  0.139E+01  0.139E+01
 -1.832  0.413E+00  0.413E+00
 -1.822  0.216E-01  0.216E-01
 -1.812  0.171E-03  0.171E-03
 -1.802  0.192E-06  0.192E-06
 -1.792  0.318E-10  0.318E-10
 -1.782  0.202E-07  0.202E-07
 -1.772  0.254E-04  0.254E-04
 -1.762  0.430E-02  0.430E-02
 -1.752  0.987E-01  0.987E-01
 -1.742  0.306E+00  0.306E+00
 -1.732  0.129E+00  0.129E+00
 -1.722  0.732E-02  0.732E-02
 -1.712  0.564E-04  0.564E-04
 -1.702  0.587E-07  0.587E-07
 -1.692  0.827E-11  0.827E-11
 -1.682  0.101E-10  0.101E-10
 -1.672  0.696E-07  0.696E-07
 -1.662  0.646E-04  0.646E-04
 -1.652  0.812E-02  0.812E-02
 -1.642  0.138E+00  0.138E+00
 -1.632  0.318E+00  0.318E+00
 -1.622  0.991E-01  0.991E-01
 -1.612  0.418E-02  0.418E-02
 -1.602  0.239E-04  0.239E-04
 -1.592  0.184E-07  0.184E-07
 -1.582  0.193E-11  0.193E-11
 -1.572  0.290E-11  0.290E-11
 -1.562  0.250E-07  0.250E-07
 -1.552  0.293E-04  0.293E-04
 -1.542  0.463E-02  0.463E-02
 -1.532  0.992E-01  0.992E-01
 -1.522  0.290E+00  0.290E+00
 -1.512  0.202E+00  0.202E+00
 -1.502  0.523E+00  0.523E+00
 -1.492  0.435E+00  0.435E+00
 -1.482  0.112E+00  0.112E+00
 -1.472  0.150E+00  0.150E+00
 -1.462  0.686E-01  0.686E-01
 -1.452  0.307E+00  0.307E+00
 -1.442  0.854E+00  0.854E+00
 -1.432  0.595E+00  0.595E+00
 -1.422  0.304E+00  0.304E+00
 -1.412  0.116E+00  0.116E+00
 -1.402  0.270E-01  0.270E-01
 -1.392  0.197E+00  0.197E+00
 -1.382  0.313E+00  0.313E+00
 -1.372  0.340E+00  0.340E+00
 -1.362  0.641E+00  0.641E+00
 -1.352  0.271E+00  0.271E+00
 -1.342  0.228E-01  0.228E-01
 -1.332  0.442E-03  0.442E-03
 -1.322  0.117E-01  0.117E-01
 -1.312  0.161E+00  0.161E+00
 -1.302  0.302E+00  0.302E+00
 -1.292  0.764E-01  0.764E-01
 -1.282  0.544E-02  0.544E-02
 -1.272  0.641E-01  0.641E-01
 -1.262  0.242E+00  0.242E+00
 -1.252  0.359E+00  0.359E+00
 -1.242  0.209E+00  0.209E+00
 -1.232  0.467E-01  0.467E-01
 -1.222  0.199E+00  0.199E+00
 -1.212  0.316E+00  0.316E+00
 -1.202  0.491E+00  0.491E+00
 -1.192  0.328E+00  0.328E+00
 -1.182  0.330E-01  0.330E-01
 -1.172  0.547E-03  0.547E-03
 -1.162  0.129E-01  0.129E-01
 -1.152  0.236E+00  0.236E+00
 -1.142  0.588E+00  0.588E+00
 -1.132  0.198E+00  0.198E+00
 -1.122  0.901E-02  0.901E-02
 -1.112  0.134E-03  0.134E-03
 -1.102  0.871E-02  0.871E-02
 -1.092  0.131E+00  0.131E+00
 -1.082  0.265E+00  0.265E+00
 -1.072  0.741E-01  0.741E-01
 -1.062  0.250E-01  0.250E-01
 -1.052  0.619E-01  0.619E-01
 -1.042  0.232E-01  0.232E-01
 -1.032  0.212E-02  0.212E-02
 -1.022  0.403E-01  0.403E-01
 -1.012  0.234E+00  0.234E+00
 -1.002  0.234E+00  0.234E+00
 -0.992  0.366E+00  0.366E+00
 -0.982  0.313E+00  0.313E+00
 -0.972  0.110E+00  0.110E+00
 -0.962  0.282E+00  0.282E+00
 -0.952  0.148E+00  0.148E+00
 -0.942  0.105E-01  0.105E-01
 -0.932  0.102E-03  0.102E-03
 -0.922  0.132E-06  0.132E-06
 -0.912  0.234E-10  0.234E-10
 -0.902  0.559E-15  0.559E-15
 -0.892  0.000E+00  0.000E+00
 -0.882  0.000E+00  0.000E+00
 -0.872  0.000E+00  0.000E+00
 -0.862  0.206E-17  0.206E-17
 -0.852  0.245E-12  0.245E-12
 -0.842  0.393E-08  0.393E-08
 -0.832  0.853E-05  0.853E-05
 -0.822  0.251E-02  0.251E-02
 -0.812  0.999E-01  0.999E-01
 -0.802  0.538E+00  0.538E+00
 -0.792  0.392E+00  0.392E+00
 -0.782  0.387E-01  0.387E-01
 -0.772  0.524E-03  0.524E-03
 -0.762  0.207E-02  0.207E-02
 -0.752  0.840E-01  0.840E-01
 -0.742  0.484E+00  0.484E+00
 -0.732  0.506E+00  0.506E+00
 -0.722  0.165E+00  0.165E+00
 -0.712  0.142E-01  0.142E-01
 -0.702  0.254E-02  0.254E-02
 -0.692  0.617E-01  0.617E-01
 -0.682  0.220E+00  0.220E+00
 -0.672  0.106E+00  0.106E+00
 -0.662  0.695E-02  0.695E-02
 -0.652  0.614E-04  0.614E-04
 -0.642  0.778E-07  0.778E-07
 -0.632  0.771E-05  0.771E-05
 -0.622  0.190E-02  0.190E-02
 -0.612  0.635E-01  0.635E-01
 -0.602  0.287E+00  0.287E+00
 -0.592  0.175E+00  0.175E+00
 -0.582  0.145E-01  0.145E-01
 -0.572  0.162E-03  0.162E-03
 -0.562  0.246E-06  0.246E-06
 -0.552  0.505E-10  0.505E-10
 -0.542  0.140E-14  0.140E-14
 -0.532  0.000E+00  0.000E+00
 -0.522  0.000E+00  0.000E+00
 -0.512  0.000E+00  0.000E+00
 -0.502  0.208E-16  0.208E-16
 -0.492  0.151E-11  0.151E-11
 -0.482  0.149E-07  0.149E-07
 -0.472  0.198E-04  0.198E-04
 -0.462  0.357E-02  0.357E-02
 -0.452  0.872E-01  0.872E-01
 -0.442  0.289E+00  0.289E+00
 -0.432  0.182E+00  0.182E+00
 -0.422  0.407E+00  0.407E+00
 -0.412  0.405E+00  0.405E+00
 -0.402  0.602E-01  0.602E-01
 -0.392  0.115E+00  0.115E+00
 -0.382  0.409E+00  0.409E+00
 -0.372  0.212E+00  0.212E+00
 -0.362  0.159E-01  0.159E-01
 -0.352  0.171E-03  0.171E-03
 -0.342  0.257E-06  0.257E-06
 -0.332  0.537E-10  0.537E-10
 -0.322  0.155E-14  0.155E-14
 -0.312  0.223E-12  0.223E-12
 -0.302  0.276E-08  0.276E-08
 -0.292  0.467E-05  0.467E-05
 -0.282  0.112E-02  0.112E-02
 -0.272  0.413E-01  0.413E-01
 -0.262  0.271E+00  0.271E+00
 -0.252  0.342E+00  0.342E+00
 -0.242  0.749E-01  0.749E-01
 -0.232  0.247E-02  0.247E-02
 -0.222  0.114E-04  0.114E-04
 -0.212  0.722E-08  0.722E-08
 -0.202  0.620E-12  0.620E-12
 -0.192  0.722E-17  0.722E-17
 -0.182  0.000E+00  0.000E+00
 -0.172  0.000E+00  0.000E+00
 -0.162  0.000E+00  0.000E+00
 -0.152  0.000E+00  0.000E+00
 -0.142  0.000E+00  0.000E+00
 -0.132  0.000E+00  0.000E+00
 -0.122  0.000E+00  0.000E+00
 -0.112  0.000E+00  0.000E+00
 -0.102  0.000E+00  0.000E+00
 -0.092  0.690E-16  0.690E-16
 -0.082  0.413E-11  0.413E-11
 -0.072  0.334E-07  0.334E-07
 -0.062  0.366E-04  0.366E-04
 -0.052  0.543E-02  0.543E-02
 -0.042  0.110E+00  0.110E+00
 -0.032  0.314E+00  0.314E+00
 -0.022  0.177E+00  0.177E+00
 -0.012  0.169E+00  0.169E+00
 -0.002  0.437E+00  0.437E+00
  0.008  0.191E+00  0.191E+00
  0.018  0.113E-01  0.113E-01
  0.028  0.908E-04  0.908E-04
  0.038  0.987E-07  0.987E-07
  0.048  0.145E-10  0.145E-10
  0.058  0.289E-15  0.289E-15
  0.068  0.831E-15  0.831E-15
  0.078  0.256E-10  0.256E-10
  0.088  0.107E-06  0.107E-06
  0.098  0.604E-04  0.604E-04
  0.108  0.462E-02  0.462E-02
  0.118  0.477E-01  0.477E-01
  0.128  0.668E-01  0.668E-01
  0.138  0.127E-01  0.127E-01
  0.148  0.325E-03  0.325E-03
  0.158  0.113E-05  0.113E-05
  0.168  0.164E-07  0.164E-07
  0.178  0.240E-04  0.240E-04
  0.188  0.494E-02  0.494E-02
  0.198  0.137E+00  0.137E+00
  0.208  0.516E+00  0.516E+00
  0.218  0.262E+00  0.262E+00
  0.228  0.181E-01  0.181E-01
  0.238  0.168E-03  0.168E-03
  0.248  0.212E-06  0.212E-06
  0.258  0.363E-10  0.363E-10
  0.268  0.838E-15  0.838E-15
  0.278  0.000E+00  0.000E+00
  0.288  0.000E+00  0.000E+00
  0.298  0.709E-15  0.709E-15
  0.308  0.274E-10  0.274E-10
  0.318  0.143E-06  0.143E-06
  0.328  0.102E-03  0.102E-03
  0.338  0.974E-02  0.974E-02
  0.348  0.126E+00  0.126E+00
