# E (eV)  dos(E)    pdos(E)
 -6.292  0.806E-05  0.803E-05
 -6.282  0.120E-02  0.119E-02
 -6.272  0.240E-01  0.239E-01
 -6.262  0.653E-01  0.651E-01
 -6.252  0.240E-01  0.239E-01
 -6.242  0.120E-02  0.119E-02
 -6.232  0.806E-05  0.803E-05
 -6.222  0.875E-08  0.872E-08
 -6.212  0.372E-05  0.371E-05
 -6.202  0.134E-02  0.133E-02
 -6.192  0.652E-01  0.649E-01
 -6.182  0.429E+00  0.428E+00
 -6.172  0.385E+00  0.384E+00
 -6.162  0.123E+00  0.123E+00
 -6.152  0.364E+00  0.362E+00
 -6.142  0.232E+00  0.231E+00
 -6.132  0.201E-01  0.200E-01
 -6.122  0.235E-03  0.234E-03
 -6.112  0.372E-06  0.370E-06
 -6.102  0.797E-10  0.794E-10
 -6.092  0.340E-12  0.339E-12
 -6.082  0.536E-08  0.534E-08
 -6.072  0.115E-04  0.115E-04
 -6.062  0.334E-02  0.333E-02
 -6.052  0.132E+00  0.131E+00
 -6.042  0.700E+00  0.697E+00
 -6.032  0.504E+00  0.502E+00
 -6.022  0.492E-01  0.490E-01
 -6.012  0.648E-03  0.646E-03
 -6.002  0.116E-05  0.115E-05
 -5.992  0.182E-05  0.181E-05
 -5.982  0.109E-02  0.108E-02
 -5.972  0.881E-01  0.877E-01
 -5.962  0.965E+00  0.961E+00
 -5.952  0.143E+01  0.143E+01
 -5.942  0.377E+00  0.376E+00
 -5.932  0.478E+00  0.477E+00
 -5.922  0.330E+00  0.329E+00
 -5.912  0.314E-01  0.312E-01
 -5.902  0.403E-03  0.401E-03
 -5.892  0.701E-06  0.698E-06
 -5.882  0.165E-09  0.164E-09
 -5.872  0.966E-14  0.962E-14
 -5.862  0.136E-09  0.135E-09
 -5.852  0.565E-06  0.562E-06
 -5.842  0.318E-03  0.317E-03
 -5.832  0.243E-01  0.242E-01
 -5.822  0.251E+00  0.250E+00
 -5.812  0.351E+00  0.349E+00
 -5.802  0.663E-01  0.661E-01
 -5.792  0.170E-02  0.169E-02
 -5.782  0.589E-05  0.586E-05
 -5.772  0.106E-04  0.106E-04
 -5.762  0.388E-02  0.386E-02
 -5.752  0.192E+00  0.191E+00
 -5.742  0.128E+01  0.127E+01
 -5.732  0.116E+01  0.116E+01
 -5.722  0.358E+00  0.357E+00
 -5.712  0.133E+01  0.132E+01
 -5.702  0.110E+01  0.110E+01
 -5.692  0.124E+00  0.123E+00
 -5.682  0.188E-02  0.187E-02
 -5.672  0.387E-05  0.386E-05
 -5.662  0.108E-08  0.107E-08
 -5.652  0.395E-10  0.393E-10
 -5.642  0.284E-06  0.283E-06
 -5.632  0.276E-03  0.275E-03
 -5.622  0.363E-01  0.362E-01
 -5.612  0.648E+00  0.645E+00
 -5.602  0.156E+01  0.155E+01
 -5.592  0.510E+00  0.507E+00
 -5.582  0.225E-01  0.224E-01
 -5.572  0.135E-03  0.134E-03
 -5.562  0.220E-05  0.219E-05
 -5.552  0.889E-03  0.885E-03
 -5.542  0.518E-01  0.515E-01
 -5.532  0.467E+00  0.465E+00
 -5.522  0.130E+01  0.129E+01
 -5.512  0.154E+01  0.153E+01
 -5.502  0.339E+00  0.337E+00
 -5.492  0.104E-01  0.104E-01
 -5.482  0.435E-04  0.433E-04
 -5.472  0.246E-07  0.245E-07
 -5.462  0.188E-11  0.187E-11
 -5.452  0.249E-16  0.248E-16
 -5.442  0.574E-12  0.571E-12
 -5.432  0.824E-08  0.820E-08
 -5.422  0.160E-04  0.159E-04
 -5.412  0.421E-02  0.419E-02
 -5.402  0.150E+00  0.149E+00
 -5.392  0.722E+00  0.719E+00
 -5.382  0.471E+00  0.469E+00
 -5.372  0.415E-01  0.414E-01
 -5.362  0.496E-03  0.494E-03
 -5.352  0.813E-06  0.810E-06
 -5.342  0.290E-04  0.289E-04
 -5.332  0.967E-02  0.963E-02
 -5.322  0.436E+00  0.434E+00
 -5.312  0.267E+01  0.266E+01
 -5.302  0.258E+01  0.257E+01
 -5.292  0.176E+01  0.175E+01
 -5.282  0.834E+00  0.831E+00
 -5.272  0.301E+00  0.300E+00
 -5.262  0.357E+00  0.355E+00
 -5.252  0.707E-01  0.704E-01
 -5.242  0.190E-02  0.189E-02
 -5.232  0.692E-05  0.688E-05
 -5.222  0.340E-08  0.339E-08
 -5.212  0.309E-09  0.307E-09
 -5.202  0.145E-05  0.144E-05
 -5.192  0.921E-03  0.917E-03
 -5.182  0.793E-01  0.789E-01
 -5.172  0.923E+00  0.919E+00
 -5.162  0.145E+01  0.145E+01
 -5.152  0.310E+00  0.309E+00
 -5.142  0.927E-02  0.923E-02
 -5.132  0.398E-01  0.396E-01
 -5.122  0.676E+00  0.673E+00
 -5.112  0.156E+01  0.155E+01
 -5.102  0.485E+00  0.483E+00
 -5.092  0.246E-01  0.245E-01
 -5.082  0.201E+00  0.200E+00
 -5.072  0.130E+01  0.129E+01
 -5.062  0.114E+01  0.113E+01
 -5.052  0.135E+00  0.134E+00
 -5.042  0.216E-02  0.215E-02
 -5.032  0.433E-04  0.432E-04
 -5.022  0.679E-02  0.676E-02
 -5.012  0.161E+00  0.161E+00
 -5.002  0.519E+00  0.517E+00
 -4.992  0.226E+00  0.225E+00
 -4.982  0.133E-01  0.132E-01
 -4.972  0.106E-03  0.106E-03
 -4.962  0.114E-06  0.114E-06
 -4.952  0.785E-10  0.782E-10
 -4.942  0.406E-06  0.404E-06
 -4.932  0.360E-03  0.359E-03
 -4.922  0.433E-01  0.431E-01
 -4.912  0.704E+00  0.701E+00
 -4.902  0.155E+01  0.154E+01
 -4.892  0.467E+00  0.465E+00
 -4.882  0.301E+00  0.299E+00
 -4.872  0.221E+01  0.220E+01
 -4.862  0.259E+01  0.258E+01
 -4.852  0.456E+00  0.454E+00
 -4.842  0.119E-01  0.118E-01
 -4.832  0.443E-04  0.441E-04
 -4.822  0.139E-05  0.138E-05
 -4.812  0.106E-02  0.105E-02
 -4.802  0.111E+00  0.111E+00
 -4.792  0.158E+01  0.157E+01
 -4.782  0.304E+01  0.303E+01
 -4.772  0.792E+00  0.789E+00
 -4.762  0.333E-01  0.332E-01
 -4.752  0.234E+00  0.233E+00
 -4.742  0.136E+01  0.135E+01
 -4.732  0.107E+01  0.106E+01
 -4.722  0.113E+00  0.113E+00
 -4.712  0.166E-02  0.165E-02
 -4.702  0.938E-02  0.934E-02
 -4.692  0.428E+00  0.426E+00
 -4.682  0.265E+01  0.264E+01
 -4.672  0.222E+01  0.221E+01
 -4.662  0.251E+00  0.250E+00
 -4.652  0.384E-02  0.383E-02
 -4.642  0.797E-05  0.794E-05
 -4.632  0.224E-08  0.223E-08
 -4.622  0.850E-13  0.846E-13
 -4.612  0.158E-17  0.158E-17
 -4.602  0.227E-12  0.226E-12
 -4.592  0.441E-08  0.439E-08
 -4.582  0.116E-04  0.116E-04
 -4.572  0.413E-02  0.411E-02
 -4.562  0.199E+00  0.198E+00
 -4.552  0.129E+01  0.129E+01
 -4.542  0.114E+01  0.114E+01
 -4.532  0.245E+00  0.244E+00
 -4.522  0.112E+01  0.112E+01
 -4.512  0.175E+01  0.174E+01
 -4.502  0.469E+00  0.467E+00
 -4.492  0.240E-01  0.238E-01
 -4.482  0.217E-03  0.216E-03
 -4.472  0.234E-03  0.233E-03
 -4.462  0.222E-01  0.221E-01
 -4.452  0.286E+00  0.285E+00
 -4.442  0.515E+00  0.513E+00
 -4.432  0.568E+00  0.566E+00
 -4.422  0.155E+01  0.154E+01
 -4.412  0.725E+00  0.722E+00
 -4.402  0.253E+00  0.252E+00
 -4.392  0.766E+00  0.763E+00
 -4.382  0.382E+00  0.380E+00
 -4.372  0.259E-01  0.257E-01
 -4.362  0.185E-01  0.184E-01
 -4.352  0.621E+00  0.618E+00
 -4.342  0.292E+01  0.291E+01
 -4.332  0.265E+01  0.263E+01
 -4.322  0.320E+01  0.319E+01
 -4.312  0.159E+01  0.158E+01
 -4.302  0.112E+00  0.111E+00
 -4.292  0.107E-02  0.106E-02
 -4.282  0.138E-05  0.137E-05
 -4.272  0.135E-08  0.135E-08
 -4.262  0.464E-05  0.463E-05
 -4.252  0.265E-02  0.264E-02
 -4.242  0.211E+00  0.210E+00
 -4.232  0.242E+01  0.242E+01
 -4.222  0.433E+01  0.432E+01
 -4.212  0.130E+01  0.129E+01
 -4.202  0.659E-01  0.657E-01
 -4.192  0.112E-02  0.111E-02
 -4.182  0.596E-01  0.594E-01
 -4.172  0.822E+00  0.819E+00
 -4.162  0.162E+01  0.162E+01
 -4.152  0.638E+00  0.636E+00
 -4.142  0.961E-01  0.958E-01
 -4.132  0.160E+00  0.160E+00
 -4.122  0.214E+01  0.213E+01
 -4.112  0.452E+01  0.450E+01
 -4.102  0.145E+01  0.145E+01
 -4.092  0.686E-01  0.683E-01
 -4.082  0.459E-03  0.457E-03
 -4.072  0.426E-06  0.424E-06
 -4.062  0.215E-07  0.214E-07
 -4.052  0.391E-04  0.390E-04
 -4.042  0.968E-02  0.964E-02
 -4.032  0.324E+00  0.323E+00
 -4.022  0.147E+01  0.146E+01
 -4.012  0.102E+01  0.101E+01
 -4.002  0.116E+01  0.115E+01
 -3.992  0.134E+01  0.134E+01
 -3.982  0.225E+00  0.225E+00
 -3.972  0.512E-02  0.510E-02
 -3.962  0.557E-04  0.555E-04
 -3.952  0.982E-02  0.979E-02
 -3.942  0.327E+00  0.326E+00
 -3.932  0.147E+01  0.147E+01
 -3.922  0.899E+00  0.896E+00
 -3.912  0.242E+00  0.241E+00
 -3.902  0.123E+01  0.122E+01
 -3.892  0.123E+01  0.123E+01
 -3.882  0.826E+00  0.823E+00
 -3.872  0.295E+01  0.294E+01
 -3.862  0.177E+01  0.177E+01
 -3.852  0.157E+00  0.157E+00
 -3.842  0.378E+00  0.377E+00
 -3.832  0.151E+01  0.150E+01
 -3.822  0.819E+00  0.817E+00
 -3.812  0.130E+00  0.130E+00
 -3.802  0.128E+01  0.128E+01
 -3.792  0.340E+01  0.339E+01
 -3.782  0.264E+01  0.263E+01
 -3.772  0.233E+01  0.232E+01
 -3.762  0.125E+01  0.125E+01
 -3.752  0.142E+00  0.142E+00
 -3.742  0.233E-02  0.233E-02
 -3.732  0.522E-05  0.520E-05
 -3.722  0.169E-08  0.169E-08
 -3.712  0.758E-06  0.756E-06
 -3.702  0.685E-03  0.683E-03
 -3.692  0.838E-01  0.835E-01
 -3.682  0.139E+01  0.138E+01
 -3.672  0.311E+01  0.310E+01
 -3.662  0.941E+00  0.938E+00
 -3.652  0.386E-01  0.385E-01
 -3.642  0.214E-03  0.214E-03
 -3.632  0.144E-03  0.143E-03
 -3.622  0.294E-01  0.293E-01
 -3.612  0.814E+00  0.811E+00
 -3.602  0.305E+01  0.304E+01
 -3.592  0.155E+01  0.155E+01
 -3.582  0.123E+00  0.122E+00
 -3.572  0.213E+00  0.212E+00
 -3.562  0.374E+00  0.373E+00
 -3.552  0.895E-01  0.892E-01
 -3.542  0.290E-02  0.289E-02
 -3.532  0.238E-04  0.237E-04
 -3.522  0.487E-02  0.485E-02
 -3.512  0.290E+00  0.289E+00
 -3.502  0.233E+01  0.233E+01
 -3.492  0.254E+01  0.254E+01
 -3.482  0.376E+00  0.375E+00
 -3.472  0.145E-01  0.144E-01
 -3.462  0.269E+00  0.268E+00
 -3.452  0.141E+01  0.140E+01
 -3.442  0.998E+00  0.994E+00
 -3.432  0.957E-01  0.954E-01
 -3.422  0.124E-02  0.124E-02
 -3.412  0.219E-05  0.218E-05
 -3.402  0.520E-09  0.518E-09
 -3.392  0.891E-10  0.888E-10
 -3.382  0.625E-06  0.623E-06
 -3.372  0.593E-03  0.591E-03
 -3.362  0.762E-01  0.760E-01
 -3.352  0.133E+01  0.132E+01
 -3.342  0.312E+01  0.311E+01
 -3.332  0.100E+01  0.100E+01
 -3.322  0.396E+00  0.395E+00
 -3.312  0.150E+01  0.149E+01
 -3.302  0.124E+01  0.123E+01
 -3.292  0.348E+01  0.346E+01
 -3.282  0.480E+01  0.478E+01
 -3.272  0.109E+01  0.108E+01
 -3.262  0.394E-01  0.393E-01
 -3.252  0.219E-03  0.219E-03
 -3.242  0.179E-06  0.179E-06
 -3.232  0.208E-10  0.207E-10
 -3.222  0.333E-15  0.332E-15
 -3.212  0.000E+00  0.000E+00
 -3.202  0.000E+00  0.000E+00
 -3.192  0.000E+00  0.000E+00
 -3.182  0.000E+00  0.000E+00
 -3.172  0.000E+00  0.000E+00
 -3.162  0.000E+00  0.000E+00
 -3.152  0.000E+00  0.000E+00
 -3.142  0.000E+00  0.000E+00
 -3.132  0.000E+00  0.000E+00
 -3.122  0.000E+00  0.000E+00
 -3.112  0.390E-14  0.389E-14
 -3.102  0.156E-09  0.156E-09
 -3.092  0.846E-06  0.844E-06
 -3.082  0.621E-03  0.619E-03
 -3.072  0.616E-01  0.615E-01
 -3.062  0.831E+00  0.829E+00
 -3.052  0.168E+01  0.168E+01
 -3.042  0.162E+01  0.162E+01
 -3.032  0.120E+01  0.120E+01
 -3.022  0.200E+00  0.200E+00
 -3.012  0.741E+00  0.738E+00
 -3.002  0.154E+01  0.154E+01
 -2.992  0.435E+00  0.434E+00
 -2.982  0.166E-01  0.166E-01
 -2.972  0.861E-04  0.858E-04
 -2.962  0.233E-04  0.232E-04
 -2.952  0.826E-02  0.823E-02
 -2.942  0.397E+00  0.396E+00
 -2.932  0.259E+01  0.258E+01
 -2.922  0.228E+01  0.228E+01
 -2.912  0.272E+00  0.272E+00
 -2.902  0.440E-02  0.439E-02
 -2.892  0.961E-05  0.959E-05
 -2.882  0.319E-06  0.318E-06
 -2.872  0.356E-03  0.355E-03
 -2.862  0.543E-01  0.542E-01
 -2.852  0.112E+01  0.112E+01
 -2.842  0.313E+01  0.313E+01
 -2.832  0.119E+01  0.118E+01
 -2.822  0.121E+00  0.120E+00
 -2.812  0.819E+00  0.817E+00
 -2.802  0.151E+01  0.151E+01
 -2.792  0.377E+00  0.376E+00
 -2.782  0.127E-01  0.127E-01
 -2.772  0.582E-04  0.580E-04
 -2.762  0.360E-07  0.359E-07
 -2.752  0.301E-11  0.301E-11
 -2.742  0.342E-16  0.341E-16
 -2.732  0.000E+00  0.000E+00
 -2.722  0.000E+00  0.000E+00
 -2.712  0.000E+00  0.000E+00
 -2.702  0.000E+00  0.000E+00
 -2.692  0.000E+00  0.000E+00
 -2.682  0.000E+00  0.000E+00
 -2.672  0.000E+00  0.000E+00
 -2.662  0.763E-15  0.761E-15
 -2.652  0.359E-10  0.358E-10
 -2.642  0.228E-06  0.228E-06
 -2.632  0.197E-03  0.196E-03
 -2.622  0.229E-01  0.229E-01
 -2.612  0.362E+00  0.361E+00
 -2.602  0.772E+00  0.770E+00
 -2.592  0.223E+00  0.223E+00
 -2.582  0.873E-02  0.871E-02
 -2.572  0.462E-04  0.461E-04
 -2.562  0.331E-07  0.330E-07
 -2.552  0.321E-11  0.320E-11
 -2.542  0.421E-16  0.420E-16
 -2.532  0.000E+00  0.000E+00
 -2.522  0.000E+00  0.000E+00
 -2.512  0.102E-14  0.102E-14
 -2.502  0.405E-10  0.404E-10
 -2.492  0.218E-06  0.217E-06
 -2.482  0.159E-03  0.158E-03
 -2.472  0.156E-01  0.156E-01
 -2.462  0.208E+00  0.208E+00
 -2.452  0.376E+00  0.375E+00
 -2.442  0.142E+00  0.142E+00
 -2.432  0.760E+00  0.758E+00
 -2.422  0.153E+01  0.153E+01
 -2.412  0.421E+00  0.420E+00
 -2.402  0.156E-01  0.156E-01
 -2.392  0.125E-03  0.125E-03
 -2.382  0.109E-01  0.109E-01
 -2.372  0.347E+00  0.346E+00
 -2.362  0.149E+01  0.148E+01
 -2.352  0.865E+00  0.862E+00
 -2.342  0.116E+00  0.116E+00
 -2.332  0.500E+00  0.499E+00
 -2.322  0.704E+00  0.702E+00
 -2.312  0.134E+00  0.134E+00
 -2.302  0.347E-02  0.346E-02
 -2.292  0.121E-04  0.121E-04
 -2.282  0.573E-08  0.571E-08
 -2.272  0.366E-12  0.366E-12
 -2.262  0.914E-13  0.912E-13
 -2.252  0.185E-08  0.184E-08
 -2.242  0.505E-05  0.504E-05
 -2.232  0.187E-02  0.187E-02
 -2.222  0.938E-01  0.935E-01
 -2.212  0.636E+00  0.634E+00
 -2.202  0.584E+00  0.582E+00
 -2.192  0.725E-01  0.723E-01
 -2.182  0.122E-02  0.121E-02
 -2.172  0.277E-05  0.276E-05
 -2.162  0.853E-09  0.851E-09
 -2.152  0.355E-13  0.354E-13
 -2.142  0.000E+00  0.000E+00
 -2.132  0.000E+00  0.000E+00
 -2.122  0.000E+00  0.000E+00
 -2.112  0.000E+00  0.000E+00
 -2.102  0.000E+00  0.000E+00
 -2.092  0.000E+00  0.000E+00
 -2.082  0.000E+00  0.000E+00
 -2.072  0.000E+00  0.000E+00
 -2.062  0.000E+00  0.000E+00
 -2.052  0.000E+00  0.000E+00
 -2.042  0.000E+00  0.000E+00
 -2.032  0.000E+00  0.000E+00
 -2.022  0.000E+00  0.000E+00
 -2.012  0.000E+00  0.000E+00
 -2.002  0.000E+00  0.000E+00
 -1.992  0.142E-14  0.142E-14
 -1.982  0.678E-10  0.676E-10
 -1.972  0.436E-06  0.435E-06
 -1.962  0.380E-03  0.379E-03
 -1.952  0.449E-01  0.447E-01
 -1.942  0.716E+00  0.714E+00
 -1.932  0.155E+01  0.154E+01
 -1.922  0.452E+00  0.451E+00
 -1.912  0.179E-01  0.178E-01
 -1.902  0.958E-04  0.956E-04
 -1.892  0.853E-07  0.851E-07
 -1.882  0.374E-04  0.373E-04
 -1.872  0.123E-01  0.123E-01
 -1.862  0.587E+00  0.585E+00
 -1.852  0.453E+01  0.452E+01
 -1.842  0.667E+01  0.666E+01
 -1.832  0.199E+01  0.198E+01
 -1.822  0.104E+00  0.104E+00
 -1.812  0.823E-03  0.821E-03
 -1.802  0.922E-06  0.920E-06
 -1.792  0.153E-09  0.153E-09
 -1.782  0.103E-06  0.103E-06
 -1.772  0.129E-03  0.129E-03
 -1.762  0.219E-01  0.218E-01
 -1.752  0.502E+00  0.501E+00
 -1.742  0.156E+01  0.156E+01
 -1.732  0.656E+00  0.654E+00
 -1.722  0.373E-01  0.372E-01
 -1.712  0.287E-03  0.286E-03
 -1.702  0.299E-06  0.298E-06
 -1.692  0.421E-10  0.420E-10
 -1.682  0.496E-10  0.495E-10
 -1.672  0.340E-06  0.340E-06
 -1.662  0.316E-03  0.315E-03
 -1.652  0.397E-01  0.397E-01
 -1.642  0.676E+00  0.675E+00
 -1.632  0.156E+01  0.155E+01
 -1.622  0.485E+00  0.484E+00
 -1.612  0.205E-01  0.204E-01
 -1.602  0.117E-03  0.116E-03
 -1.592  0.901E-07  0.899E-07
 -1.582  0.942E-11  0.940E-11
 -1.572  0.158E-10  0.157E-10
 -1.562  0.136E-06  0.136E-06
 -1.552  0.159E-03  0.159E-03
 -1.542  0.252E-01  0.252E-01
 -1.532  0.540E+00  0.539E+00
 -1.522  0.158E+01  0.158E+01
 -1.512  0.114E+01  0.114E+01
 -1.502  0.290E+01  0.289E+01
 -1.492  0.236E+01  0.235E+01
 -1.482  0.593E+00  0.592E+00
 -1.472  0.786E+00  0.784E+00
 -1.462  0.372E+00  0.371E+00
 -1.452  0.174E+01  0.174E+01
 -1.442  0.479E+01  0.478E+01
 -1.432  0.377E+01  0.376E+01
 -1.422  0.242E+01  0.241E+01
 -1.412  0.972E+00  0.966E+00
 -1.402  0.164E+00  0.163E+00
 -1.392  0.962E+00  0.960E+00
 -1.382  0.156E+01  0.156E+01
 -1.372  0.213E+01  0.212E+01
 -1.362  0.431E+01  0.429E+01
 -1.352  0.190E+01  0.189E+01
 -1.342  0.165E+00  0.164E+00
 -1.332  0.298E-02  0.297E-02
 -1.322  0.586E-01  0.585E-01
 -1.312  0.809E+00  0.808E+00
 -1.302  0.151E+01  0.151E+01
 -1.292  0.383E+00  0.382E+00
 -1.282  0.365E-01  0.363E-01
 -1.272  0.526E+00  0.523E+00
 -1.262  0.183E+01  0.182E+01
 -1.252  0.204E+01  0.203E+01
 -1.242  0.105E+01  0.105E+01
 -1.232  0.291E+00  0.290E+00
 -1.222  0.139E+01  0.139E+01
 -1.212  0.205E+01  0.204E+01
 -1.202  0.309E+01  0.308E+01
 -1.192  0.209E+01  0.208E+01
 -1.182  0.210E+00  0.209E+00
 -1.172  0.339E-02  0.338E-02
 -1.162  0.684E-01  0.683E-01
 -1.152  0.126E+01  0.125E+01
 -1.142  0.313E+01  0.312E+01
 -1.132  0.105E+01  0.105E+01
 -1.122  0.480E-01  0.479E-01
 -1.112  0.750E-03  0.748E-03
 -1.102  0.503E-01  0.502E-01
 -1.092  0.755E+00  0.753E+00
 -1.082  0.153E+01  0.153E+01
 -1.072  0.431E+00  0.430E+00
 -1.062  0.204E+00  0.203E+00
 -1.052  0.522E+00  0.519E+00
 -1.042  0.196E+00  0.195E+00
 -1.032  0.155E-01  0.154E-01
 -1.022  0.235E+00  0.235E+00
 -1.012  0.137E+01  0.136E+01
 -1.002  0.145E+01  0.145E+01
 -0.992  0.268E+01  0.267E+01
 -0.982  0.232E+01  0.231E+01
 -0.972  0.670E+00  0.667E+00
 -0.962  0.152E+01  0.152E+01
 -0.952  0.799E+00  0.797E+00
 -0.942  0.569E-01  0.568E-01
 -0.932  0.548E-03  0.547E-03
 -0.922  0.715E-06  0.714E-06
 -0.912  0.126E-09  0.126E-09
 -0.902  0.302E-14  0.301E-14
 -0.892  0.000E+00  0.000E+00
 -0.882  0.000E+00  0.000E+00
 -0.872  0.000E+00  0.000E+00
 -0.862  0.107E-16  0.107E-16
 -0.852  0.127E-11  0.127E-11
 -0.842  0.204E-07  0.203E-07
 -0.832  0.442E-04  0.442E-04
 -0.822  0.130E-01  0.130E-01
 -0.812  0.518E+00  0.517E+00
 -0.802  0.279E+01  0.278E+01
 -0.792  0.203E+01  0.203E+01
 -0.782  0.201E+00  0.200E+00
 -0.772  0.272E-02  0.272E-02
 -0.762  0.127E-01  0.127E-01
 -0.752  0.516E+00  0.514E+00
 -0.742  0.302E+01  0.301E+01
 -0.732  0.341E+01  0.340E+01
 -0.722  0.126E+01  0.125E+01
 -0.712  0.112E+00  0.112E+00
 -0.702  0.179E-01  0.178E-01
 -0.692  0.431E+00  0.430E+00
 -0.682  0.154E+01  0.153E+01
 -0.672  0.743E+00  0.740E+00
 -0.662  0.485E-01  0.484E-01
 -0.652  0.429E-03  0.428E-03
 -0.642  0.536E-06  0.534E-06
 -0.632  0.395E-04  0.394E-04
 -0.622  0.974E-02  0.973E-02
 -0.612  0.325E+00  0.325E+00
 -0.602  0.147E+01  0.147E+01
 -0.592  0.898E+00  0.897E+00
 -0.582  0.743E-01  0.742E-01
 -0.572  0.832E-03  0.831E-03
 -0.562  0.126E-05  0.126E-05
 -0.552  0.259E-09  0.258E-09
 -0.542  0.718E-14  0.717E-14
 -0.532  0.000E+00  0.000E+00
 -0.522  0.000E+00  0.000E+00
 -0.512  0.000E+00  0.000E+00
 -0.502  0.112E-15  0.112E-15
 -0.492  0.814E-11  0.813E-11
 -0.482  0.802E-07  0.800E-07
 -0.472  0.107E-03  0.107E-03
 -0.462  0.193E-01  0.192E-01
 -0.452  0.470E+00  0.469E+00
 -0.442  0.156E+01  0.156E+01
 -0.432  0.102E+01  0.102E+01
 -0.422  0.247E+01  0.246E+01
 -0.412  0.246E+01  0.245E+01
 -0.402  0.372E+00  0.371E+00
 -0.392  0.863E+00  0.860E+00
 -0.382  0.301E+01  0.300E+01
 -0.372  0.154E+01  0.153E+01
 -0.362  0.114E+00  0.113E+00
 -0.352  0.120E-02  0.120E-02
 -0.342  0.179E-05  0.179E-05
 -0.332  0.373E-09  0.371E-09
 -0.322  0.107E-13  0.107E-13
 -0.312  0.131E-11  0.131E-11
 -0.302  0.162E-07  0.161E-07
 -0.292  0.274E-04  0.273E-04
 -0.282  0.654E-02  0.653E-02
 -0.272  0.239E+00  0.239E+00
 -0.262  0.155E+01  0.155E+01
 -0.252  0.194E+01  0.193E+01
 -0.242  0.421E+00  0.420E+00
 -0.232  0.138E-01  0.138E-01
 -0.222  0.639E-04  0.638E-04
 -0.212  0.404E-07  0.403E-07
 -0.202  0.347E-11  0.347E-11
 -0.192  0.404E-16  0.403E-16
 -0.182  0.000E+00  0.000E+00
 -0.172  0.000E+00  0.000E+00
 -0.162  0.000E+00  0.000E+00
 -0.152  0.000E+00  0.000E+00
 -0.142  0.000E+00  0.000E+00
 -0.132  0.000E+00  0.000E+00
 -0.122  0.000E+00  0.000E+00
 -0.112  0.000E+00  0.000E+00
 -0.102  0.000E+00  0.000E+00
 -0.092  0.365E-15  0.365E-15
 -0.082  0.219E-10  0.218E-10
 -0.072  0.177E-06  0.177E-06
 -0.062  0.194E-03  0.194E-03
 -0.052  0.288E-01  0.287E-01
 -0.042  0.583E+00  0.582E+00
 -0.032  0.172E+01  0.172E+01
 -0.022  0.113E+01  0.113E+01
 -0.012  0.123E+01  0.122E+01
 -0.002  0.313E+01  0.312E+01
  0.008  0.136E+01  0.136E+01
  0.018  0.809E-01  0.806E-01
  0.028  0.649E-03  0.647E-03
  0.038  0.705E-06  0.703E-06
  0.048  0.104E-09  0.103E-09
  0.058  0.206E-14  0.206E-14
  0.068  0.437E-14  0.436E-14
  0.078  0.135E-09  0.134E-09
  0.088  0.562E-06  0.561E-06
  0.098  0.317E-03  0.317E-03
  0.108  0.242E-01  0.242E-01
  0.118  0.251E+00  0.250E+00
  0.128  0.351E+00  0.351E+00
  0.138  0.665E-01  0.664E-01
  0.148  0.170E-02  0.170E-02
  0.158  0.591E-05  0.591E-05
  0.168  0.966E-07  0.964E-07
  0.178  0.142E-03  0.142E-03
  0.188  0.292E-01  0.292E-01
  0.198  0.812E+00  0.810E+00
  0.208  0.305E+01  0.305E+01
  0.218  0.155E+01  0.155E+01
  0.228  0.107E+00  0.107E+00
  0.238  0.997E-03  0.996E-03
  0.248  0.126E-05  0.126E-05
  0.258  0.215E-09  0.214E-09
  0.268  0.496E-14  0.495E-14
  0.278  0.000E+00  0.000E+00
  0.288  0.000E+00  0.000E+00
  0.298  0.477E-14  0.476E-14
  0.308  0.185E-09  0.184E-09
  0.318  0.966E-06  0.964E-06
  0.328  0.684E-03  0.683E-03
  0.338  0.656E-01  0.655E-01
  0.348  0.851E+00  0.849E+00
